Current (mA),Peak Wavelength (nm),Peak Power (dBm)
0.00,700.0000,-21.85
5.00,669.0000,-19.71
10.00,689.0000,-21.74
15.00,676.0000,-19.40
20.00,681.0000,-20.88
25.00,692.0000,-20.50
30.00,651.0000,-20.29
35.00,663.0000,-19.76
40.00,676.0000,-19.05
45.00,691.0000,-21.21
50.00,672.0000,-21.32
55.00,703.0000,-19.88
60.00,970.0000,-12.62
65.00,969.0000,-5.01
70.00,970.0000,-2.66
75.00,969.0000,-0.77
80.00,971.0000,0.03
85.00,970.0000,1.11
90.00,969.0000,1.84
95.00,970.0000,2.58
100.00,969.0000,3.12
